# temp [K]	 threshold current [mA]	 error current [ma]	
283.0000 10.4800 0.0900
288.0000 10.8600 0.1000
293.0000 11.0500 0.1000
298.0000 11.3300 0.0500
303.0000 11.6500 0.0600
308.0000 11.9800 0.0700
313.0000 12.3400 0.0700
318.0000 12.7100 0.0800
323.0000 13.1100 0.0900
328.0000 13.5700 0.0700
333.0000 14.0800 0.1000
338.0000 14.5800 0.1000
343.0000 15.1800 0.1100
348.0000 15.7400 0.1300
353.0000 16.5500 0.1600
